" File: Jessing Folder\Maltol Spectrum.SSM
" SCOPE->  Wave:902.92nm  Pix:1050  Val:2113.889  Time:3000ms  Avg:1  Sm:0  Sg:0  Tc:off  SNAP  Xt:3  Ch:1  Xtrig
 795.00  1.3111E+003
 795.25  1.4202E+003
 795.50  1.5399E+003
 795.75  1.4931E+003
 796.00  1.7210E+003
 796.25  1.9664E+003
 796.50  1.9650E+003
 796.75  1.9898E+003
 797.00  2.0055E+003
 797.25  1.6784E+003
 797.50  1.7300E+003
 797.75  1.6597E+003
 798.00  1.6505E+003
 798.25  1.6493E+003
 798.50  1.7919E+003
 798.75  1.8868E+003
 799.00  1.9480E+003
 799.25  2.0524E+003
 799.50  2.3176E+003
 799.75  2.3911E+003
 800.00  2.4091E+003
 800.25  2.5423E+003
 800.50  2.5584E+003
 800.75  2.5005E+003
 801.00  2.4981E+003
 801.25  2.4588E+003
 801.50  2.3458E+003
 801.75  2.1487E+003
 802.00  2.0189E+003
 802.25  2.0171E+003
 802.50  2.1164E+003
 802.75  2.0928E+003
 803.00  2.2621E+003
 803.25  2.6409E+003
 803.50  2.9576E+003
 803.75  3.5372E+003
 804.00  3.5766E+003
 804.25  3.2887E+003
 804.50  3.0109E+003
 804.75  3.0643E+003
 805.00  3.1066E+003
 805.25  3.4079E+003
 805.50  2.9587E+003
 805.75  2.6646E+003
 806.00  2.2661E+003
 806.25  1.8769E+003
 806.50  2.1815E+003
 806.75  2.3795E+003
 807.00  2.4165E+003
 807.25  2.4481E+003
 807.50  2.4562E+003
 807.75  2.2950E+003
 808.00  2.2297E+003
 808.25  2.0263E+003
 808.50  2.2690E+003
 808.75  2.2262E+003
 809.00  1.9638E+003
 809.25  1.9978E+003
 809.50  1.9638E+003
 809.75  1.9164E+003
 810.00  1.9866E+003
 810.25  2.1876E+003
 810.50  2.2105E+003
 810.75  2.2700E+003
 811.00  2.1328E+003
 811.25  2.2390E+003
 811.50  2.2292E+003
 811.75  2.2689E+003
 812.00  2.1304E+003
 812.25  2.1867E+003
 812.50  2.1902E+003
 812.75  1.8683E+003
 813.00  1.8181E+003
 813.25  1.9629E+003
 813.50  2.0349E+003
 813.75  2.2315E+003
 814.00  2.4717E+003
 814.25  2.4925E+003
 814.50  2.6336E+003
 814.75  2.7137E+003
 815.00  2.9211E+003
 815.25  2.8470E+003
 815.50  2.6560E+003
 815.75  2.3813E+003
 816.00  2.3375E+003
 816.25  2.8459E+003
 816.50  3.4656E+003
 816.75  3.1386E+003
 817.00  2.6615E+003
 817.25  2.5194E+003
 817.50  2.5388E+003
 817.75  3.2504E+003
 818.00  4.0747E+003
 818.25  4.3726E+003
 818.50  4.1646E+003
 818.75  3.4831E+003
 819.00  3.1051E+003
 819.25  3.2289E+003
 819.50  2.9752E+003
 819.75  2.5127E+003
 820.00  2.1786E+003
 820.25  2.0145E+003
 820.50  2.4539E+003
 820.75  3.3501E+003
 821.00  3.4669E+003
 821.25  3.2737E+003
 821.50  2.8526E+003
 821.75  2.5423E+003
 822.00  2.3213E+003
 822.25  2.2727E+003
 822.50  2.1314E+003
 822.75  2.0150E+003
 823.00  1.9681E+003
 823.25  1.9420E+003
 823.50  1.6963E+003
 823.75  1.7773E+003
 824.00  1.7454E+003
 824.25  1.8228E+003
 824.50  1.8876E+003
 824.75  2.1773E+003
 825.00  2.3447E+003
 825.25  2.3246E+003
 825.50  2.3095E+003
 825.75  2.2761E+003
 826.00  2.1451E+003
 826.25  2.1435E+003
 826.50  2.1407E+003
 826.75  2.0421E+003
 827.00  1.9127E+003
 827.25  1.8385E+003
 827.50  1.9576E+003
 827.75  1.8931E+003
 828.00  2.1331E+003
 828.25  2.0870E+003
 828.50  2.1163E+003
 828.75  2.2491E+003
 829.00  2.1987E+003
 829.25  2.1179E+003
 829.50  2.2489E+003
 829.75  2.3666E+003
 830.00  2.9101E+003
 830.25  4.3808E+003
 830.50  6.6592E+003
 830.75  7.1041E+003
 831.00  5.9696E+003
 831.25  4.6483E+003
 831.50  3.5063E+003
 831.75  2.7991E+003
 832.00  2.5243E+003
 832.25  2.5351E+003
 832.50  2.6333E+003
 832.75  2.4904E+003
 833.00  2.4889E+003
 833.25  2.4508E+003
 833.50  2.1851E+003
 833.75  1.9211E+003
 834.00  1.8914E+003
 834.25  1.7019E+003
 834.50  2.0624E+003
 834.75  1.8890E+003
 835.00  2.1414E+003
 835.25  2.2008E+003
 835.50  2.0005E+003
 835.75  2.0959E+003
 836.00  1.9925E+003
 836.25  2.1880E+003
 836.50  2.4387E+003
 836.75  2.2548E+003
 837.00  1.9796E+003
 837.25  1.7434E+003
 837.50  1.5803E+003
 837.75  1.6167E+003
 838.00  1.8346E+003
 838.25  1.8226E+003
 838.50  1.7165E+003
 838.75  1.9726E+003
 839.00  2.0737E+003
 839.25  2.0538E+003
 839.50  2.0971E+003
 839.75  2.2879E+003
 840.00  2.3768E+003
 840.25  2.4893E+003
 840.50  2.5587E+003
 840.75  2.7471E+003
 841.00  2.5744E+003
 841.25  2.5836E+003
 841.50  2.0690E+003
 841.75  1.9018E+003
 842.00  1.9402E+003
 842.25  1.9257E+003
 842.50  1.8651E+003
 842.75  1.9458E+003
 843.00  2.1500E+003
 843.25  2.0906E+003
 843.50  2.1884E+003
 843.75  2.4541E+003
 844.00  2.3654E+003
 844.25  2.1462E+003
 844.50  1.9339E+003
 844.75  1.8797E+003
 845.00  1.8266E+003
 845.25  1.8597E+003
 845.50  1.7681E+003
 845.75  1.7628E+003
 846.00  2.0580E+003
 846.25  2.3417E+003
 846.50  2.3790E+003
 846.75  2.3277E+003
 847.00  2.4749E+003
 847.25  2.2634E+003
 847.50  2.2118E+003
 847.75  2.1825E+003
 848.00  2.1708E+003
 848.25  2.1392E+003
 848.50  1.8794E+003
 848.75  1.6610E+003
 849.00  1.6533E+003
 849.25  1.7833E+003
 849.50  1.8257E+003
 849.75  1.6002E+003
 850.00  1.7367E+003
 850.25  1.9395E+003
 850.50  2.1809E+003
 850.75  2.3902E+003
 851.00  2.5122E+003
 851.25  2.4107E+003
 851.50  2.1481E+003
 851.75  1.9511E+003
 852.00  1.8040E+003
 852.25  1.8322E+003
 852.50  1.6294E+003
 852.75  1.7754E+003
 853.00  2.1502E+003
 853.25  2.3956E+003
 853.50  2.5742E+003
 853.75  2.9475E+003
 854.00  3.0924E+003
 854.25  3.1159E+003
 854.50  2.8285E+003
 854.75  2.5782E+003
 855.00  2.4814E+003
 855.25  2.3092E+003
 855.50  2.2135E+003
 855.75  2.2058E+003
 856.00  2.0943E+003
 856.25  2.1326E+003
 856.50  2.0520E+003
 856.75  2.3713E+003
 857.00  3.0588E+003
 857.25  3.2979E+003
 857.50  3.6548E+003
 857.75  3.5198E+003
 858.00  3.1348E+003
 858.25  2.8725E+003
 858.50  2.6474E+003
 858.75  2.5628E+003
 859.00  2.0696E+003
 859.25  2.0836E+003
 859.50  1.8799E+003
 859.75  1.7225E+003
 860.00  1.5376E+003
 860.25  1.6793E+003
 860.50  1.6861E+003
 860.75  1.7196E+003
 861.00  1.8623E+003
 861.25  2.1635E+003
 861.50  2.1449E+003
 861.75  2.2114E+003
 862.00  1.8715E+003
 862.25  1.7850E+003
 862.50  1.6800E+003
 862.75  1.9384E+003
 863.00  1.9983E+003
 863.25  1.7857E+003
 863.50  1.6453E+003
 863.75  1.4588E+003
 864.00  1.6870E+003
 864.25  1.7237E+003
 864.50  1.7579E+003
 864.75  2.1017E+003
 865.00  2.0303E+003
 865.25  1.9741E+003
 865.50  2.1998E+003
 865.75  2.1232E+003
 866.00  2.1094E+003
 866.25  1.7792E+003
 866.50  1.8003E+003
 866.75  1.5256E+003
 867.00  1.4957E+003
 867.25  1.1879E+003
 867.50  1.5314E+003
 867.75  1.8466E+003
 868.00  1.9436E+003
 868.25  2.1480E+003
 868.50  2.1281E+003
 868.75  2.4263E+003
 869.00  2.1952E+003
 869.25  2.1989E+003
 869.50  2.2343E+003
 869.75  2.0840E+003
 870.00  1.9697E+003
 870.25  2.0367E+003
 870.50  2.2098E+003
 870.75  2.4549E+003
 871.00  2.1206E+003
 871.25  2.0533E+003
 871.50  1.9302E+003
 871.75  2.0492E+003
 872.00  2.4041E+003
 872.25  2.5190E+003
 872.50  2.4411E+003
 872.75  2.4115E+003
 873.00  2.3598E+003
 873.25  2.3457E+003
 873.50  2.2233E+003
 873.75  2.0532E+003
 874.00  1.9375E+003
 874.25  2.0088E+003
 874.50  2.0948E+003
 874.75  2.2445E+003
 875.00  2.0308E+003
 875.25  1.8914E+003
 875.50  2.0727E+003
 875.75  2.0279E+003
 876.00  2.3746E+003
 876.25  2.3763E+003
 876.50  2.3013E+003
 876.75  2.1279E+003
 877.00  2.0247E+003
 877.25  2.1456E+003
 877.50  1.9520E+003
 877.75  1.7196E+003
 878.00  1.8013E+003
 878.25  1.7791E+003
 878.50  2.0497E+003
 878.75  2.2914E+003
 879.00  2.6249E+003
 879.25  2.7741E+003
 879.50  2.7467E+003
 879.75  2.9991E+003
 880.00  2.6109E+003
 880.25  2.3100E+003
 880.50  2.2955E+003
 880.75  2.0470E+003
 881.00  2.0458E+003
 881.25  1.8384E+003
 881.50  1.8674E+003
 881.75  1.8789E+003
 882.00  1.7890E+003
 882.25  1.9772E+003
 882.50  2.1780E+003
 882.75  2.1941E+003
 883.00  2.2980E+003
 883.25  2.2419E+003
 883.50  2.3656E+003
 883.75  2.2741E+003
 884.00  2.2816E+003
 884.25  2.0461E+003
 884.50  1.9364E+003
 884.75  1.9656E+003
 885.00  1.8891E+003
 885.25  1.8333E+003
 885.50  1.8427E+003
 885.75  1.9415E+003
 886.00  1.9181E+003
 886.25  2.2390E+003
 886.50  2.2842E+003
 886.75  2.2238E+003
 887.00  2.4542E+003
 887.25  2.5886E+003
 887.50  2.3688E+003
 887.75  2.2231E+003
 888.00  1.9173E+003
 888.25  1.7744E+003
 888.50  1.7268E+003
 888.75  1.4310E+003
 889.00  1.4302E+003
 889.25  1.5309E+003
 889.50  1.6213E+003
 889.75  1.7011E+003
 890.00  1.9166E+003
 890.25  2.1784E+003
 890.50  2.3059E+003
 890.75  2.3451E+003
 891.00  2.2915E+003
 891.25  2.1476E+003
 891.50  2.0408E+003
 891.75  1.9657E+003
 892.00  1.7506E+003
 892.25  1.9405E+003
 892.50  2.0222E+003
 892.75  1.9028E+003
 893.00  2.0423E+003
 893.25  2.4759E+003
 893.50  2.6643E+003
 893.75  2.8148E+003
 894.00  3.2887E+003
 894.25  4.0321E+003
 894.50  4.5104E+003
 894.75  4.1621E+003
 895.00  3.6793E+003
 895.25  3.0155E+003
 895.50  2.6196E+003
 895.75  2.0728E+003
 896.00  1.9438E+003
 896.25  1.9141E+003
 896.50  2.0015E+003
 896.75  2.1189E+003
 897.00  2.1914E+003
 897.25  2.2733E+003
 897.50  2.4547E+003
 897.75  3.1220E+003
 898.00  3.9712E+003
 898.25  4.4985E+003
 898.50  4.1618E+003
 898.75  3.8393E+003
 899.00  3.4388E+003
 899.25  3.0450E+003
 899.50  2.5738E+003
 899.75  2.1295E+003
 900.00  2.0745E+003
 900.25  2.0375E+003
 900.50  1.8638E+003
 900.75  2.1257E+003
 901.00  2.4209E+003
 901.25  2.5568E+003
 901.50  2.8158E+003
 901.75  3.2208E+003
 902.00  3.5660E+003
 902.25  3.3229E+003
 902.50  2.7639E+003
 902.75  2.5446E+003
 903.00  1.9469E+003
 903.25  1.7078E+003
 903.50  1.7011E+003
 903.75  1.7033E+003
 904.00  1.7931E+003
 904.25  1.9842E+003
 904.50  1.9617E+003
 904.75  2.0106E+003
 905.00  1.9487E+003
 905.25  2.0968E+003
 905.50  2.2249E+003
 905.75  2.0061E+003
 906.00  1.6543E+003
 906.25  1.5488E+003
 906.50  1.5073E+003
 906.75  1.6438E+003
 907.00  1.5501E+003
 907.25  1.5885E+003
 907.50  1.4768E+003
 907.75  1.6010E+003
 908.00  1.6660E+003
 908.25  1.7854E+003
 908.50  1.8304E+003
 908.75  1.9103E+003
 909.00  1.8719E+003
 909.25  1.9955E+003
 909.50  1.9804E+003
 909.75  1.9389E+003
 910.00  1.7895E+003
 910.25  1.5985E+003
 910.50  1.6768E+003
 910.75  1.6088E+003
 911.00  1.6242E+003
 911.25  1.5251E+003
 911.50  1.6752E+003
 911.75  1.9785E+003
 912.00  2.0787E+003
 912.25  2.1011E+003
 912.50  2.1014E+003
 912.75  2.0277E+003
 913.00  1.8327E+003
 913.25  1.7548E+003
 913.50  1.5652E+003
 913.75  1.5877E+003
 914.00  1.5585E+003
 914.25  1.3090E+003
 914.50  1.4124E+003
 914.75  1.5399E+003
 915.00  1.7314E+003
 915.25  1.5427E+003
 915.50  1.6829E+003
 915.75  1.8963E+003
 916.00  2.0611E+003
 916.25  1.8528E+003
 916.50  1.9018E+003
 916.75  1.7147E+003
 917.00  1.4868E+003
 917.25  1.4247E+003
 917.50  1.5270E+003
 917.75  1.4111E+003
 918.00  1.3333E+003
 918.25  1.6631E+003
 918.50  1.6455E+003
 918.75  1.5574E+003
 919.00  1.7450E+003
 919.25  1.8301E+003
 919.50  2.0788E+003
 919.75  1.9508E+003
 920.00  2.0722E+003
 920.25  2.1432E+003
 920.50  1.9757E+003
 920.75  1.6963E+003
 921.00  1.5074E+003
 921.25  1.0651E+003
 921.50  1.2299E+003
 921.75  1.2499E+003
 922.00  1.3763E+003
 922.25  1.6319E+003
 922.50  1.7995E+003
 922.75  1.9371E+003
 923.00  1.9267E+003
 923.25  2.0289E+003
 923.50  2.0158E+003
 923.75  1.9451E+003
 924.00  1.8416E+003
 924.25  1.8334E+003
 924.50  1.6735E+003
 924.75  1.5755E+003
 925.00  1.3578E+003
 925.25  1.5249E+003
 925.50  1.2446E+003
 925.75  1.4971E+003
 926.00  1.6661E+003
 926.25  1.8337E+003
 926.50  2.1944E+003
 926.75  2.1396E+003
 927.00  2.1513E+003
 927.25  2.2007E+003
 927.50  2.1016E+003
 927.75  1.8677E+003
 928.00  1.5127E+003
 928.25  1.5417E+003
 928.50  1.5041E+003
 928.75  1.5068E+003
 929.00  1.4580E+003
 929.25  1.3123E+003
 929.50  1.3884E+003
 929.75  1.6950E+003
 930.00  1.7791E+003
 930.25  1.9622E+003
 930.50  1.8453E+003
 930.75  1.7506E+003
 931.00  1.6998E+003
 931.25  1.8094E+003
 931.50  1.8054E+003
 931.75  1.7000E+003
 932.00  1.6185E+003
 932.25  1.5474E+003
 932.50  1.4535E+003
 932.75  1.4026E+003
 933.00  1.4850E+003
 933.25  1.5083E+003
 933.50  1.9333E+003
 933.75  1.9750E+003
 934.00  2.0553E+003
 934.25  1.9712E+003
 934.50  1.8760E+003
 934.75  1.8487E+003
 935.00  1.7111E+003
 935.25  1.7334E+003
 935.50  1.6389E+003
 935.75  1.6605E+003
 936.00  1.5215E+003
 936.25  1.3563E+003
 936.50  1.3303E+003
 936.75  1.5249E+003
 937.00  1.7072E+003
 937.25  2.0935E+003
 937.50  2.2094E+003
 937.75  2.1400E+003
 938.00  1.8511E+003
 938.25  1.9578E+003
 938.50  1.8640E+003
 938.75  1.9118E+003
 939.00  1.6411E+003
 939.25  1.5426E+003
 939.50  1.4356E+003
 939.75  1.3239E+003
 940.00  1.3808E+003
 940.25  1.6084E+003
 940.50  1.6859E+003
 940.75  1.7333E+003
 941.00  1.9828E+003
 941.25  2.1483E+003
 941.50  2.0093E+003
 941.75  2.1675E+003
 942.00  2.0909E+003
 942.25  1.6838E+003
 942.50  1.6176E+003
 942.75  1.7211E+003
 943.00  1.4295E+003
 943.25  1.4393E+003
 943.50  1.3659E+003
 943.75  1.4239E+003
 944.00  1.5381E+003
 944.25  1.4798E+003
 944.50  1.5813E+003
 944.75  1.7000E+003
 945.00  1.8940E+003
 945.25  1.7960E+003
 945.50  1.9115E+003
 945.75  1.8822E+003
 946.00  1.7656E+003
 946.25  1.5882E+003
 946.50  1.4442E+003
 946.75  1.3728E+003
 947.00  1.3447E+003
 947.25  1.4911E+003
 947.50  1.4166E+003
 947.75  1.5011E+003
 948.00  1.7071E+003
 948.25  1.7339E+003
 948.50  1.6565E+003
 948.75  1.6999E+003
 949.00  1.9402E+003
 949.25  1.7888E+003
 949.50  1.8732E+003
 949.75  1.7850E+003
 950.00  1.5681E+003
 950.25  1.2573E+003
 950.50  1.2023E+003
 950.75  1.5195E+003
 951.00  1.6672E+003
 951.25  1.6661E+003
 951.50  1.4800E+003
 951.75  1.5709E+003
 952.00  1.7261E+003
 952.25  1.6847E+003
 952.50  1.9362E+003
 952.75  1.8727E+003
 953.00  1.9357E+003
 953.25  1.8484E+003
 953.50  1.3911E+003
 953.75  1.3823E+003
 954.00  1.5770E+003
 954.25  1.7011E+003
 954.50  1.5187E+003
 954.75  1.3483E+003
 955.00  1.4680E+003
 955.25  1.6434E+003
 955.50  1.6484E+003
 955.75  1.6995E+003
 956.00  1.8564E+003
 956.25  1.8933E+003
 956.50  1.8740E+003
 956.75  1.8157E+003
 957.00  1.7679E+003
 957.25  1.6376E+003
 957.50  1.5109E+003
 957.75  1.3592E+003
 958.00  1.3546E+003
 958.25  1.1456E+003
 958.50  1.2497E+003
 958.75  1.4142E+003
 959.00  1.5653E+003
 959.25  1.5714E+003
 959.50  1.7289E+003
 959.75  1.6867E+003
 960.00  1.6356E+003
 960.25  1.5803E+003
 960.50  1.5508E+003
 960.75  1.5683E+003
 961.00  1.7961E+003
 961.25  1.5741E+003
 961.50  1.3064E+003
 961.75  1.0904E+003
 962.00  1.1977E+003
 962.25  1.2988E+003
 962.50  1.4669E+003
 962.75  1.7132E+003
 963.00  1.6265E+003
 963.25  1.6142E+003
 963.50  1.8202E+003
 963.75  1.9997E+003
 964.00  2.1606E+003
 964.25  1.8220E+003
 964.50  1.6222E+003
 964.75  1.5934E+003
 965.00  1.4646E+003
 965.25  1.4213E+003
 965.50  1.5039E+003
 965.75  1.6816E+003
 966.00  1.6375E+003
 966.25  1.6813E+003
 966.50  1.9223E+003
 966.75  2.0533E+003
 967.00  1.8886E+003
 967.25  1.6267E+003
 967.50  1.7220E+003
 967.75  1.5892E+003
 968.00  1.6489E+003
 968.25  1.8030E+003
 968.50  1.6189E+003
 968.75  1.6142E+003
 969.00  1.6241E+003
 969.25  1.5694E+003
 969.50  1.4108E+003
 969.75  1.4394E+003
 970.00  1.6205E+003
 970.25  1.8372E+003
 970.50  2.1151E+003
 970.75  2.1058E+003
 971.00  1.6981E+003
 971.25  1.6572E+003
 971.50  1.6814E+003
 971.75  1.5659E+003
 972.00  1.3348E+003
 972.25  1.5051E+003
 972.50  1.3645E+003
 972.75  1.0944E+003
 973.00  1.1722E+003
 973.25  1.4601E+003
 973.50  1.7978E+003
 973.75  1.8908E+003
 974.00  1.9474E+003
 974.25  1.6935E+003
 974.50  2.1073E+003
 974.75  2.0773E+003
 975.00  1.8706E+003
 975.25  1.7113E+003
 975.50  1.5592E+003
 975.75  1.5114E+003
 976.00  1.4536E+003
 976.25  1.1495E+003
 976.50  1.1597E+003
 976.75  1.2814E+003
 977.00  1.2630E+003
 977.25  1.5107E+003
 977.50  1.8219E+003
 977.75  2.0014E+003
 978.00  1.9946E+003
 978.25  1.9677E+003
 978.50  1.7135E+003
 978.75  1.5153E+003
 979.00  1.4913E+003
 979.25  1.2869E+003
 979.50  1.3229E+003
 979.75  1.1713E+003
 980.00  1.1918E+003
 980.25  1.3816E+003
 980.50  1.4479E+003
 980.75  1.5589E+003
 981.00  1.7424E+003
 981.25  1.7400E+003
 981.50  1.8613E+003
 981.75  1.7105E+003
 982.00  2.0560E+003
 982.25  1.9261E+003
 982.50  1.8237E+003
 982.75  1.8075E+003
 983.00  1.5572E+003
 983.25  1.4837E+003
 983.50  1.2138E+003
 983.75  1.1338E+003
 984.00  1.2720E+003
 984.25  1.3318E+003
 984.50  1.5787E+003
 984.75  1.8211E+003
 985.00  1.9356E+003
 985.25  2.0414E+003
 985.50  2.0653E+003
 985.75  1.8731E+003
 986.00  1.8119E+003
 986.25  1.7676E+003
 986.50  1.5382E+003
 986.75  1.2560E+003
 987.00  1.0659E+003
 987.25  1.2755E+003
 987.50  1.3168E+003
 987.75  1.3163E+003
 988.00  1.4856E+003
 988.25  1.5942E+003
 988.50  1.8191E+003
 988.75  1.9084E+003
 989.00  1.9120E+003
 989.25  1.8224E+003
 989.50  1.8364E+003
 989.75  1.8270E+003
 990.00  1.8662E+003
 990.25  1.6467E+003
 990.50  1.4106E+003
 990.75  1.4344E+003
 991.00  1.4814E+003
 991.25  1.5084E+003
 991.50  1.3715E+003
 991.75  1.4493E+003
 992.00  1.5857E+003
 992.25  1.7027E+003
 992.50  1.9636E+003
 992.75  2.0360E+003
 993.00  1.8988E+003
 993.25  1.8027E+003
 993.50  1.7483E+003
 993.75  1.8114E+003
 994.00  1.4238E+003
 994.25  1.3909E+003
 994.50  1.4022E+003
 994.75  1.4016E+003
 995.00  1.3767E+003
 995.25  1.4949E+003
 995.50  1.7219E+003
 995.75  1.8349E+003
 996.00  1.7383E+003
 996.25  2.0036E+003
 996.50  2.0037E+003
 996.75  1.9516E+003
 997.00  1.7843E+003
 997.25  1.5623E+003
 997.50  1.5221E+003
 997.75  1.4855E+003
 998.00  1.3817E+003
 998.25  1.3231E+003
 998.50  1.4011E+003
 998.75  1.5175E+003
 999.00  1.3945E+003
 999.25  1.3919E+003
 999.50  1.5996E+003
 999.75  1.8265E+003
1000.00  1.9349E+003
1000.25  1.9110E+003
1000.50  1.5240E+003
1000.75  1.6349E+003
1001.00  1.3610E+003
1001.25  1.2065E+003
1001.50  1.1252E+003
1001.75  1.3917E+003
1002.00  1.3396E+003
1002.25  1.4004E+003
1002.50  1.5334E+003
1002.75  1.5664E+003
1003.00  1.5097E+003
1003.25  1.7492E+003
1003.50  1.7495E+003
1003.75  1.8656E+003
1004.00  1.8938E+003
1004.25  1.9921E+003
1004.50  1.6013E+003
1004.75  1.4642E+003
1005.00  1.4024E+003
1005.25  1.6256E+003
1005.50  1.5452E+003
1005.75  1.2710E+003
1006.00  1.2698E+003
1006.25  1.3689E+003
1006.50  1.4972E+003
1006.75  1.7964E+003
1007.00  1.7884E+003
1007.25  1.8861E+003
1007.50  1.8899E+003
1007.75  2.1134E+003
