" File: Monday\DarkSpectrum2.SSM
" SCOPE->  Wave:902.92nm  Pix:1050  Val:1424.000  Time:3000ms  Avg:1  Sm:1  Sg:0  Tc:off  SNAP  Xt:3  Ch:1  Xtrig
 795.00  1.6910E+003
 795.25  1.9079E+003
 795.50  1.5767E+003
 795.75  1.4608E+003
 796.00  1.5160E+003
 796.25  1.5199E+003
 796.50  1.5906E+003
 796.75  1.5830E+003
 797.00  1.5897E+003
 797.25  1.5702E+003
 797.50  1.5958E+003
 797.75  1.6807E+003
 798.00  1.8575E+003
 798.25  1.9314E+003
 798.50  1.7537E+003
 798.75  1.5832E+003
 799.00  1.4510E+003
 799.25  1.3883E+003
 799.50  1.4308E+003
 799.75  1.5278E+003
 800.00  1.6465E+003
 800.25  1.7341E+003
 800.50  1.7230E+003
 800.75  1.7153E+003
 801.00  1.7848E+003
 801.25  1.8629E+003
 801.50  1.8896E+003
 801.75  1.8724E+003
 802.00  1.9073E+003
 802.25  1.9602E+003
 802.50  1.9282E+003
 802.75  1.8192E+003
 803.00  1.5927E+003
 803.25  1.3088E+003
 803.50  1.2557E+003
 803.75  1.3632E+003
 804.00  1.4654E+003
 804.25  1.5802E+003
 804.50  1.6739E+003
 804.75  1.6914E+003
 805.00  1.7927E+003
 805.25  1.8980E+003
 805.50  1.8131E+003
 805.75  1.7549E+003
 806.00  1.6894E+003
 806.25  1.5606E+003
 806.50  1.4725E+003
 806.75  1.3724E+003
 807.00  1.3328E+003
 807.25  1.3757E+003
 807.50  1.4817E+003
 807.75  1.6134E+003
 808.00  1.6833E+003
 808.25  1.6848E+003
 808.50  1.7744E+003
 808.75  1.8170E+003
 809.00  1.7270E+003
 809.25  1.7100E+003
 809.50  1.6601E+003
 809.75  1.5860E+003
 810.00  1.5026E+003
 810.25  1.3967E+003
 810.50  1.3862E+003
 810.75  1.4247E+003
 811.00  1.3571E+003
 811.25  1.3280E+003
 811.50  1.4213E+003
 811.75  1.5379E+003
 812.00  1.7130E+003
 812.25  1.8599E+003
 812.50  1.8892E+003
 812.75  1.8443E+003
 813.00  1.7196E+003
 813.25  1.6613E+003
 813.50  1.6595E+003
 813.75  1.5907E+003
 814.00  1.5257E+003
 814.25  1.4857E+003
 814.50  1.4915E+003
 814.75  1.3773E+003
 815.00  1.2946E+003
 815.25  1.4980E+003
 815.50  1.7799E+003
 815.75  1.9085E+003
 816.00  1.9379E+003
 816.25  1.9897E+003
 816.50  2.0305E+003
 816.75  1.9323E+003
 817.00  1.6615E+003
 817.25  1.4362E+003
 817.50  1.3852E+003
 817.75  1.4303E+003
 818.00  1.4361E+003
 818.25  1.4009E+003
 818.50  1.4806E+003
 818.75  1.5831E+003
 819.00  1.6153E+003
 819.25  1.8439E+003
 819.50  2.0814E+003
 819.75  2.0865E+003
 820.00  1.9217E+003
 820.25  1.7559E+003
 820.50  1.5961E+003
 820.75  1.4439E+003
 821.00  1.4412E+003
 821.25  1.4870E+003
 821.50  1.4287E+003
 821.75  1.3137E+003
 822.00  1.3449E+003
 822.25  1.4440E+003
 822.50  1.6272E+003
 822.75  1.8625E+003
 823.00  1.9302E+003
 823.25  1.8778E+003
 823.50  1.8731E+003
 823.75  1.7655E+003
 824.00  1.6704E+003
 824.25  1.7172E+003
 824.50  1.6873E+003
 824.75  1.5981E+003
 825.00  1.5797E+003
 825.25  1.5896E+003
 825.50  1.6081E+003
 825.75  1.7606E+003
 826.00  1.8445E+003
 826.25  1.7126E+003
 826.50  1.6638E+003
 826.75  1.7345E+003
 827.00  1.7901E+003
 827.25  1.8030E+003
 827.50  1.7593E+003
 827.75  1.7069E+003
 828.00  1.6170E+003
 828.25  1.5666E+003
 828.50  1.6471E+003
 828.75  1.6948E+003
 829.00  1.6141E+003
 829.25  1.5125E+003
 829.50  1.4972E+003
 829.75  1.6530E+003
 830.00  1.7430E+003
 830.25  1.6550E+003
 830.50  1.6454E+003
 830.75  1.7037E+003
 831.00  1.7082E+003
 831.25  1.6995E+003
 831.50  1.7466E+003
 831.75  1.7091E+003
 832.00  1.5654E+003
 832.25  1.5986E+003
 832.50  1.7395E+003
 832.75  1.7608E+003
 833.00  1.7013E+003
 833.25  1.7021E+003
 833.50  1.7727E+003
 833.75  1.8493E+003
 834.00  1.9238E+003
 834.25  1.9354E+003
 834.50  1.8832E+003
 834.75  1.7552E+003
 835.00  1.6973E+003
 835.25  1.7156E+003
 835.50  1.6359E+003
 835.75  1.5942E+003
 836.00  1.5747E+003
 836.25  1.5823E+003
 836.50  1.6222E+003
 836.75  1.5959E+003
 837.00  1.5902E+003
 837.25  1.7152E+003
 837.50  1.7509E+003
 837.75  1.6937E+003
 838.00  1.6745E+003
 838.25  1.6553E+003
 838.50  1.6971E+003
 838.75  1.6730E+003
 839.00  1.5286E+003
 839.25  1.5801E+003
 839.50  1.6977E+003
 839.75  1.6385E+003
 840.00  1.5414E+003
 840.25  1.5208E+003
 840.50  1.5661E+003
 840.75  1.5533E+003
 841.00  1.4966E+003
 841.25  1.6064E+003
 841.50  1.7413E+003
 841.75  1.7948E+003
 842.00  1.9562E+003
 842.25  2.0357E+003
 842.50  1.8471E+003
 842.75  1.6874E+003
 843.00  1.5205E+003
 843.25  1.2827E+003
 843.50  1.2227E+003
 843.75  1.3062E+003
 844.00  1.4719E+003
 844.25  1.6266E+003
 844.50  1.7376E+003
 844.75  1.8761E+003
 845.00  1.8944E+003
 845.25  1.7601E+003
 845.50  1.7449E+003
 845.75  1.8300E+003
 846.00  1.8050E+003
 846.25  1.6736E+003
 846.50  1.5212E+003
 846.75  1.4068E+003
 847.00  1.3584E+003
 847.25  1.3499E+003
 847.50  1.3073E+003
 847.75  1.2498E+003
 848.00  1.3860E+003
 848.25  1.5975E+003
 848.50  1.6957E+003
 848.75  1.8321E+003
 849.00  1.9776E+003
 849.25  1.9107E+003
 849.50  1.7368E+003
 849.75  1.7095E+003
 850.00  1.6557E+003
 850.25  1.5134E+003
 850.50  1.4205E+003
 850.75  1.4837E+003
 851.00  1.5639E+003
 851.25  1.6080E+003
 851.50  1.6106E+003
 851.75  1.5274E+003
 852.00  1.5978E+003
 852.25  1.8003E+003
 852.50  1.8564E+003
 852.75  1.8247E+003
 853.00  1.8638E+003
 853.25  1.9029E+003
 853.50  1.7619E+003
 853.75  1.4910E+003
 854.00  1.4055E+003
 854.25  1.5032E+003
 854.50  1.5332E+003
 854.75  1.4342E+003
 855.00  1.3840E+003
 855.25  1.4114E+003
 855.50  1.4812E+003
 855.75  1.6629E+003
 856.00  1.8316E+003
 856.25  1.8398E+003
 856.50  1.8369E+003
 856.75  1.7863E+003
 857.00  1.6005E+003
 857.25  1.4911E+003
 857.50  1.5623E+003
 857.75  1.5336E+003
 858.00  1.5021E+003
 858.25  1.5257E+003
 858.50  1.5243E+003
 858.75  1.5178E+003
 859.00  1.4854E+003
 859.25  1.4882E+003
 859.50  1.6186E+003
 859.75  1.7551E+003
 860.00  1.8322E+003
 860.25  1.9431E+003
 860.50  1.9016E+003
 860.75  1.7389E+003
 861.00  1.6716E+003
 861.25  1.6538E+003
 861.50  1.5375E+003
 861.75  1.3765E+003
 862.00  1.3620E+003
 862.25  1.4558E+003
 862.50  1.5332E+003
 862.75  1.5549E+003
 863.00  1.5754E+003
 863.25  1.6694E+003
 863.50  1.7418E+003
 863.75  1.7682E+003
 864.00  1.7764E+003
 864.25  1.7851E+003
 864.50  1.8115E+003
 864.75  1.7905E+003
 865.00  1.6467E+003
 865.25  1.4889E+003
 865.50  1.5226E+003
 865.75  1.5850E+003
 866.00  1.6451E+003
 866.25  1.7047E+003
 866.50  1.6534E+003
 866.75  1.6672E+003
 867.00  1.8094E+003
 867.25  1.8627E+003
 867.50  1.8194E+003
 867.75  1.7806E+003
 868.00  1.7750E+003
 868.25  1.7047E+003
 868.50  1.6429E+003
 868.75  1.6523E+003
 869.00  1.6798E+003
 869.25  1.6461E+003
 869.50  1.5443E+003
 869.75  1.4422E+003
 870.00  1.4041E+003
 870.25  1.4674E+003
 870.50  1.5233E+003
 870.75  1.5490E+003
 871.00  1.5985E+003
 871.25  1.6822E+003
 871.50  1.7378E+003
 871.75  1.6833E+003
 872.00  1.5331E+003
 872.25  1.4591E+003
 872.50  1.4874E+003
 872.75  1.4449E+003
 873.00  1.4197E+003
 873.25  1.4432E+003
 873.50  1.5243E+003
 873.75  1.6216E+003
 874.00  1.6015E+003
 874.25  1.5238E+003
 874.50  1.5759E+003
 874.75  1.7476E+003
 875.00  1.8799E+003
 875.25  1.8363E+003
 875.50  1.7341E+003
 875.75  1.6814E+003
 876.00  1.6712E+003
 876.25  1.5899E+003
 876.50  1.5009E+003
 876.75  1.5516E+003
 877.00  1.4781E+003
 877.25  1.3760E+003
 877.50  1.4441E+003
 877.75  1.6240E+003
 878.00  1.7201E+003
 878.25  1.7072E+003
 878.50  1.7467E+003
 878.75  1.8190E+003
 879.00  1.9456E+003
 879.25  2.0174E+003
 879.50  2.0005E+003
 879.75  1.8869E+003
 880.00  1.6831E+003
 880.25  1.6053E+003
 880.50  1.6293E+003
 880.75  1.5509E+003
 881.00  1.4409E+003
 881.25  1.5469E+003
 881.50  1.7273E+003
 881.75  1.6776E+003
 882.00  1.6346E+003
 882.25  1.7152E+003
 882.50  1.8509E+003
 882.75  1.8427E+003
 883.00  1.6262E+003
 883.25  1.4940E+003
 883.50  1.4828E+003
 883.75  1.4805E+003
 884.00  1.5374E+003
 884.25  1.6364E+003
 884.50  1.6294E+003
 884.75  1.6035E+003
 885.00  1.6026E+003
 885.25  1.6482E+003
 885.50  1.7345E+003
 885.75  1.7944E+003
 886.00  1.8160E+003
 886.25  1.8090E+003
 886.50  1.8588E+003
 886.75  1.9593E+003
 887.00  2.0426E+003
 887.25  1.9061E+003
 887.50  1.6672E+003
 887.75  1.6095E+003
 888.00  1.6446E+003
 888.25  1.6278E+003
 888.50  1.5469E+003
 888.75  1.4936E+003
 889.00  1.5047E+003
 889.25  1.5739E+003
 889.50  1.6742E+003
 889.75  1.7284E+003
 890.00  1.7622E+003
 890.25  1.7659E+003
 890.50  1.6454E+003
 890.75  1.5050E+003
 891.00  1.4848E+003
 891.25  1.5250E+003
 891.50  1.4578E+003
 891.75  1.4036E+003
 892.00  1.3917E+003
 892.25  1.3630E+003
 892.50  1.3276E+003
 892.75  1.4289E+003
 893.00  1.7260E+003
 893.25  1.9142E+003
 893.50  1.9332E+003
 893.75  1.9167E+003
 894.00  1.8832E+003
 894.25  1.7495E+003
 894.50  1.5661E+003
 894.75  1.5486E+003
 895.00  1.5671E+003
 895.25  1.4889E+003
 895.50  1.4624E+003
 895.75  1.6251E+003
 896.00  1.7265E+003
 896.25  1.6751E+003
 896.50  1.6806E+003
 896.75  1.7860E+003
 897.00  1.8685E+003
 897.25  1.9329E+003
 897.50  1.9445E+003
 897.75  1.8022E+003
 898.00  1.6387E+003
 898.25  1.5849E+003
 898.50  1.5740E+003
 898.75  1.5123E+003
 899.00  1.3837E+003
 899.25  1.3205E+003
 899.50  1.3870E+003
 899.75  1.4466E+003
 900.00  1.5269E+003
 900.25  1.6664E+003
 900.50  1.6834E+003
 900.75  1.6798E+003
 901.00  1.7373E+003
 901.25  1.7942E+003
 901.50  1.7802E+003
 901.75  1.7546E+003
 902.00  1.5928E+003
 902.25  1.3427E+003
 902.50  1.2378E+003
 902.75  1.3399E+003
 903.00  1.4700E+003
 903.25  1.6392E+003
 903.50  1.8240E+003
 903.75  1.8236E+003
 904.00  1.7612E+003
 904.25  1.7407E+003
 904.50  1.7763E+003
 904.75  1.8307E+003
 905.00  1.8835E+003
 905.25  1.8610E+003
 905.50  1.7218E+003
 905.75  1.5604E+003
 906.00  1.4533E+003
 906.25  1.4452E+003
 906.50  1.4479E+003
 906.75  1.3920E+003
 907.00  1.4371E+003
 907.25  1.5568E+003
 907.50  1.6022E+003
 907.75  1.7487E+003
 908.00  1.8396E+003
 908.25  1.7544E+003
 908.50  1.6162E+003
 908.75  1.5985E+003
 909.00  1.7352E+003
 909.25  1.7359E+003
 909.50  1.5639E+003
 909.75  1.5195E+003
 910.00  1.5079E+003
 910.25  1.3989E+003
 910.50  1.4462E+003
 910.75  1.6273E+003
 911.00  1.7145E+003
 911.25  1.7653E+003
 911.50  1.7526E+003
 911.75  1.7670E+003
 912.00  1.8145E+003
 912.25  1.7548E+003
 912.50  1.7213E+003
 912.75  1.7196E+003
 913.00  1.6536E+003
 913.25  1.5388E+003
 913.50  1.4903E+003
 913.75  1.4222E+003
 914.00  1.3401E+003
 914.25  1.2831E+003
 914.50  1.3581E+003
 914.75  1.4628E+003
 915.00  1.4744E+003
 915.25  1.5230E+003
 915.50  1.6218E+003
 915.75  1.7454E+003
 916.00  1.7560E+003
 916.25  1.6545E+003
 916.50  1.6301E+003
 916.75  1.5829E+003
 917.00  1.5080E+003
 917.25  1.5148E+003
 917.50  1.5490E+003
 917.75  1.5298E+003
 918.00  1.4631E+003
 918.25  1.4950E+003
 918.50  1.6453E+003
 918.75  1.6886E+003
 919.00  1.6424E+003
 919.25  1.5750E+003
 919.50  1.5914E+003
 919.75  1.6960E+003
 920.00  1.7390E+003
 920.25  1.6463E+003
 920.50  1.5396E+003
 920.75  1.4646E+003
 921.00  1.5118E+003
 921.25  1.6158E+003
 921.50  1.6496E+003
 921.75  1.7319E+003
 922.00  1.8276E+003
 922.25  1.8238E+003
 922.50  1.7679E+003
 922.75  1.8075E+003
 923.00  1.8521E+003
 923.25  1.8357E+003
 923.50  1.8879E+003
 923.75  1.9426E+003
 924.00  1.8538E+003
 924.25  1.6903E+003
 924.50  1.5297E+003
 924.75  1.4247E+003
 925.00  1.4416E+003
 925.25  1.4617E+003
 925.50  1.4902E+003
 925.75  1.6122E+003
 926.00  1.7247E+003
 926.25  1.8473E+003
 926.50  1.8491E+003
 926.75  1.7640E+003
 927.00  1.7100E+003
 927.25  1.6200E+003
 927.50  1.5394E+003
 927.75  1.4382E+003
 928.00  1.3574E+003
 928.25  1.3656E+003
 928.50  1.3766E+003
 928.75  1.3708E+003
 929.00  1.4527E+003
 929.25  1.4661E+003
 929.50  1.4674E+003
 929.75  1.6095E+003
 930.00  1.7470E+003
 930.25  1.8237E+003
 930.50  1.8457E+003
 930.75  1.7737E+003
 931.00  1.7500E+003
 931.25  1.8146E+003
 931.50  1.8713E+003
 931.75  1.6983E+003
 932.00  1.4970E+003
 932.25  1.4605E+003
 932.50  1.4301E+003
 932.75  1.3944E+003
 933.00  1.4157E+003
 933.25  1.5389E+003
 933.50  1.6809E+003
 933.75  1.6666E+003
 934.00  1.6093E+003
 934.25  1.7318E+003
 934.50  1.8638E+003
 934.75  1.7565E+003
 935.00  1.6108E+003
 935.25  1.5382E+003
 935.50  1.4104E+003
 935.75  1.3849E+003
 936.00  1.3896E+003
 936.25  1.4284E+003
 936.50  1.4463E+003
 936.75  1.4426E+003
 937.00  1.4654E+003
 937.25  1.5304E+003
 937.50  1.6557E+003
 937.75  1.7207E+003
 938.00  1.6778E+003
 938.25  1.6003E+003
 938.50  1.4301E+003
 938.75  1.4138E+003
 939.00  1.5693E+003
 939.25  1.7595E+003
 939.50  1.7899E+003
 939.75  1.5844E+003
 940.00  1.4664E+003
 940.25  1.4849E+003
 940.50  1.5802E+003
 940.75  1.6574E+003
 941.00  1.7382E+003
 941.25  1.8701E+003
 941.50  1.8920E+003
 941.75  1.9193E+003
 942.00  1.9497E+003
 942.25  1.7819E+003
 942.50  1.6201E+003
 942.75  1.5689E+003
 943.00  1.5722E+003
 943.25  1.6037E+003
 943.50  1.6795E+003
 943.75  1.6629E+003
 944.00  1.5405E+003
 944.25  1.4855E+003
 944.50  1.6048E+003
 944.75  1.6596E+003
 945.00  1.5982E+003
 945.25  1.6879E+003
 945.50  1.7523E+003
 945.75  1.7299E+003
 946.00  1.7402E+003
 946.25  1.7152E+003
 946.50  1.6663E+003
 946.75  1.5834E+003
 947.00  1.4900E+003
 947.25  1.4807E+003
 947.50  1.4630E+003
 947.75  1.5226E+003
 948.00  1.6834E+003
 948.25  1.7490E+003
 948.50  1.6647E+003
 948.75  1.5915E+003
 949.00  1.5603E+003
 949.25  1.5566E+003
 949.50  1.6572E+003
 949.75  1.7300E+003
 950.00  1.7140E+003
 950.25  1.5818E+003
 950.50  1.4206E+003
 950.75  1.3854E+003
 951.00  1.3919E+003
 951.25  1.3635E+003
 951.50  1.3639E+003
 951.75  1.3848E+003
 952.00  1.4347E+003
 952.25  1.5933E+003
 952.50  1.7381E+003
 952.75  1.7810E+003
 953.00  1.7810E+003
 953.25  1.8904E+003
 953.50  1.9701E+003
 953.75  1.7893E+003
 954.00  1.5111E+003
 954.25  1.4847E+003
 954.50  1.5249E+003
 954.75  1.5224E+003
 955.00  1.5836E+003
 955.25  1.6399E+003
 955.50  1.6348E+003
 955.75  1.5902E+003
 956.00  1.5811E+003
 956.25  1.6524E+003
 956.50  1.7899E+003
 956.75  1.8264E+003
 957.00  1.7838E+003
 957.25  1.6461E+003
 957.50  1.5207E+003
 957.75  1.4423E+003
 958.00  1.3227E+003
 958.25  1.3302E+003
 958.50  1.4567E+003
 958.75  1.6031E+003
 959.00  1.6882E+003
 959.25  1.6830E+003
 959.50  1.5387E+003
 959.75  1.4725E+003
 960.00  1.6964E+003
 960.25  1.8273E+003
 960.50  1.7876E+003
 960.75  1.7586E+003
 961.00  1.7923E+003
 961.25  1.8308E+003
 961.50  1.7540E+003
 961.75  1.6440E+003
 962.00  1.5783E+003
 962.25  1.5008E+003
 962.50  1.4353E+003
 962.75  1.5318E+003
 963.00  1.6258E+003
 963.25  1.6480E+003
 963.50  1.7226E+003
 963.75  1.7806E+003
 964.00  1.7557E+003
 964.25  1.6832E+003
 964.50  1.6788E+003
 964.75  1.7208E+003
 965.00  1.7407E+003
 965.25  1.5927E+003
 965.50  1.4486E+003
 965.75  1.5414E+003
 966.00  1.7209E+003
 966.25  1.7223E+003
 966.50  1.6180E+003
 966.75  1.5320E+003
 967.00  1.6788E+003
 967.25  1.8298E+003
 967.50  1.8072E+003
 967.75  1.7699E+003
 968.00  1.7663E+003
 968.25  1.8047E+003
 968.50  1.8281E+003
 968.75  1.7718E+003
 969.00  1.7261E+003
 969.25  1.6562E+003
 969.50  1.5037E+003
 969.75  1.4020E+003
 970.00  1.4122E+003
 970.25  1.4887E+003
 970.50  1.5905E+003
 970.75  1.6312E+003
 971.00  1.6752E+003
 971.25  1.7346E+003
 971.50  1.7650E+003
 971.75  1.7778E+003
 972.00  1.7588E+003
 972.25  1.6782E+003
 972.50  1.6539E+003
 972.75  1.6097E+003
 973.00  1.5948E+003
 973.25  1.5866E+003
 973.50  1.4748E+003
 973.75  1.4546E+003
 974.00  1.4664E+003
 974.25  1.4486E+003
 974.50  1.5265E+003
 974.75  1.5991E+003
 975.00  1.6519E+003
 975.25  1.7898E+003
 975.50  1.9152E+003
 975.75  1.8677E+003
 976.00  1.7024E+003
 976.25  1.5949E+003
 976.50  1.5138E+003
 976.75  1.4354E+003
 977.00  1.4731E+003
 977.25  1.6251E+003
 977.50  1.6865E+003
 977.75  1.6310E+003
 978.00  1.7004E+003
 978.25  1.7592E+003
 978.50  1.7947E+003
 978.75  1.8517E+003
 979.00  1.9016E+003
 979.25  1.8668E+003
 979.50  1.7993E+003
 979.75  1.7313E+003
 980.00  1.7130E+003
 980.25  1.7203E+003
 980.50  1.5450E+003
 980.75  1.3359E+003
 981.00  1.2735E+003
 981.25  1.4319E+003
 981.50  1.6282E+003
 981.75  1.6601E+003
 982.00  1.6682E+003
 982.25  1.7424E+003
 982.50  1.8248E+003
 982.75  1.8478E+003
 983.00  1.8162E+003
 983.25  1.7931E+003
 983.50  1.7139E+003
 983.75  1.5736E+003
 984.00  1.4982E+003
 984.25  1.4726E+003
 984.50  1.3994E+003
 984.75  1.4281E+003
 985.00  1.5962E+003
 985.25  1.7012E+003
 985.50  1.7441E+003
 985.75  1.6942E+003
 986.00  1.7250E+003
 986.25  1.8628E+003
 986.50  1.8865E+003
 986.75  1.8427E+003
 987.00  1.7573E+003
 987.25  1.7222E+003
 987.50  1.7098E+003
 987.75  1.6471E+003
 988.00  1.6121E+003
 988.25  1.6033E+003
 988.50  1.6352E+003
 988.75  1.7331E+003
 989.00  1.8378E+003
 989.25  1.8759E+003
 989.50  1.8446E+003
 989.75  1.8643E+003
 990.00  1.8490E+003
 990.25  1.8268E+003
 990.50  1.8040E+003
 990.75  1.7451E+003
 991.00  1.7546E+003
 991.25  1.7033E+003
 991.50  1.5064E+003
 991.75  1.3094E+003
 992.00  1.2158E+003
 992.25  1.3258E+003
 992.50  1.6566E+003
 992.75  1.9171E+003
 993.00  1.9492E+003
 993.25  1.8911E+003
 993.50  1.9193E+003
 993.75  1.9449E+003
 994.00  1.9195E+003
 994.25  1.8490E+003
 994.50  1.7653E+003
 994.75  1.6886E+003
 995.00  1.5874E+003
 995.25  1.4332E+003
 995.50  1.3880E+003
 995.75  1.5638E+003
 996.00  1.7360E+003
 996.25  1.7832E+003
 996.50  1.7712E+003
 996.75  1.7124E+003
 997.00  1.6682E+003
 997.25  1.7189E+003
 997.50  1.8235E+003
 997.75  1.8702E+003
 998.00  1.8915E+003
 998.25  1.8430E+003
 998.50  1.7608E+003
 998.75  1.6324E+003
 999.00  1.4360E+003
 999.25  1.2783E+003
 999.50  1.2677E+003
 999.75  1.3767E+003
1000.00  1.5306E+003
1000.25  1.6288E+003
1000.50  1.6896E+003
1000.75  1.7549E+003
1001.00  1.8224E+003
1001.25  1.7953E+003
1001.50  1.7236E+003
1001.75  1.6806E+003
1002.00  1.6598E+003
1002.25  1.5863E+003
1002.50  1.4854E+003
1002.75  1.4404E+003
1003.00  1.3891E+003
1003.25  1.3616E+003
1003.50  1.3261E+003
1003.75  1.3303E+003
1004.00  1.4291E+003
1004.25  1.5095E+003
1004.50  1.5631E+003
1004.75  1.6198E+003
1005.00  1.6643E+003
1005.25  1.6975E+003
1005.50  1.7422E+003
1005.75  1.7141E+003
1006.00  1.6499E+003
1006.25  1.5737E+003
1006.50  1.5347E+003
1006.75  1.5877E+003
1007.00  1.5935E+003
1007.25  1.5758E+003
1007.50  1.5882E+003
1007.75  1.6050E+003
